File: exemplary_data/XRD/sample2.xy
'Id: "" Comment: "Integrate frame 4_CTAB_001.gfrmwith cursor Full Frame Cursor #20" Operator: "MAF user" Anode: "Cu" Scantype: "TwoTheta" TimePerStep: "60"
4.64 -0.11853
4.92 0.543248
5.2 0.487188
5.48 0.122032
5.76 0.184028
6.04 0.0615106
6.32 0.170081
6.6 0.207065
6.88 0.423219
7.16 0.241648
7.44 0.119929
7.72 -0.039507
8 0.112215
8.28 0.131575
8.56 0.133713
8.84 0.0597309
9.12 0.0153219
9.4 0.383902
9.68 -0.0273956
9.96 0.000402643
10.24 0.0371223
10.52 0.0669633
10.8 0.0878195
11.08 -0.0628624
11.36 -0.00715709
11.64 0.104722
11.92 0.0530812
12.2 -0.0486704
12.48 0.0792919
12.76 0.341361
13.04 0.0339146
13.32 0.0957492
13.6 0.183134
13.88 1.7238
14.16 26.4912
14.44 1.26487
14.72 0.0373159
15 -0.0664911
15.28 0.122739
15.56 0.0339693
15.84 0.00697915
16.12 -0.00765209
16.4 0.141423
16.68 0.0203112
16.96 -0.00284995
17.24 0.104451
17.52 -0.0412055
17.8 -0.0405003
18.08 -0.0619979
18.36 -0.0214333
18.64 -0.0103201
18.92 0.0204598
19.2 0.0912488
19.48 -0.0729609
19.76 0.0193807
20.04 7.97478
20.32 0.730787
20.6 0.173566
20.88 0.0210335
21.16 0.0242718
21.44 -0.101277
21.72 0.0209551
22 0.100171
22.28 0.0324025
22.56 0.119378
22.84 0.0303049
23.12 -0.0157242
23.4 -0.0686838
23.68 0.108529
23.96 0.221722
24.24 0.0717981
24.52 1.72032
24.8 2.26191
25.08 0.0922354
25.36 -0.107024
25.64 0.0472341
25.92 0.0451963
26.2 -0.0491633
26.48 0.0333042
26.76 0.219676
27.04 0.0915218
27.32 -0.00583175
27.6 0.167212
27.88 0.236984
28.16 0.241896
28.44 4.9454
28.72 2.99814
29 0.138498
29.28 0.0171835
29.56 0.0493908
29.84 -0.0471549
30.12 -0.0590112
30.4 0.0330801
30.68 0.00863151
30.96 0.064067
31.24 -0.0955258
31.52 -0.0125856
31.8 0.607226
32.08 15.517
32.36 0.524884
32.64 0.137114
32.92 0.0265695
33.2 -0.00964025
33.48 0.0840459
33.76 0.115039
34.04 -0.00675545
34.32 0.0985969
34.6 -0.00663479
34.88 0.0164365
35.16 3.29696
35.44 0.208462
35.72 0.0436883
36 0.0223768
36.28 -0.0288453
36.56 0.0233103
36.84 0.0517378
37.12 0.00483532
37.4 0.0233514
37.68 0.144607
37.96 0.123006
38.24 -0.0703475
38.52 0.085881
38.8 0.0921365
39.08 0.0467787
39.36 -0.017231
39.64 0.0728177
39.92 -0.0311892
40.2 0.0497381
40.48 0.049625
40.76 8.19443
41.04 6.38979
41.32 0.28301
41.6 0.0773796
41.88 0.00159378
42.16 -0.0297326
42.44 0.0350239
42.72 -0.0808824
43 0.0462374
43.28 0.882984
43.56 3.91662
43.84 0.199909
44.12 0.0590332
44.4 0.0127144
44.68 0.00416376
44.96 -0.0631333
45.24 0.00423318
45.52 -0.057241
45.8 0.0820798
46.08 0.0997398
46.36 0.0875926
46.64 0.0314467
46.92 -0.0521043
47.2 0.026436
47.48 0.0854565
47.76 0.0244679
48.04 -0.00751196
48.32 0.0824751
48.6 0.015472
48.88 -0.00105053
49.16 -0.016018
49.44 0.192545
49.72 -0.0124075
50 -0.0512708
50.28 -0.0333484
50.56 1.05008
50.84 0.196993
51.12 -0.0164559
51.4 -0.0240386
51.68 0.0501004
51.96 -0.0118896
52.24 -0.0620438
52.52 0.181853
52.8 1.14597
53.08 0.33425
53.36 0.0109922
53.64 0.0186831
53.92 0.0771362
54.2 -0.0549259
54.48 0.00215702
54.76 0.145036
55.04 0.459754
55.32 0.115346
55.6 0.0719645
55.88 -0.0430645
56.16 0.0876721
56.44 -0.0517886
56.72 -0.0229355
57 0.0863675
57.28 -0.00569911
57.56 -0.0247947
57.84 0.00425289
58.12 0.0243492
58.4 0.0393801
58.68 0.0762737
58.96 0.0465846
59.24 0.129053
59.52 -0.0552809
59.8 -0.0603607
60.08 -0.0330127
60.36 0.00926709
60.64 0.0419613
60.92 -0.0654245
61.2 0.432865
61.48 0.00179032
61.76 -0.00643294
62.04 -0.00962176
62.32 0.0339704
62.6 -0.0522842
62.88 0.015046
63.16 0.129069
63.44 0.0702322
63.72 -0.0125055
64 -0.0125597
64.28 0.0447828
64.56 -0.0639214
64.84 0.0253365
65.12 0.0043654
65.4 0.0232598
65.68 0.0350506
65.96 0.0650868
66.24 0.04831
66.52 0.0396977
66.8 0.269499
67.08 0.616641
67.36 0.107859
67.64 -0.0526406
67.92 0.0269912
68.2 0.0829387
68.48 -0.00146156
68.76 0.631827
69.04 0.43756
69.32 -0.0436868
69.6 -0.00956475
69.88 0.0255541
70.16 0.0314358
70.44 -0.0133928
70.72 0.0848729
71 -0.0200573
71.28 0.0211536
71.56 -0.0159333
71.84 -0.0555605
72.12 -0.00566824
72.4 0.070661
72.68 0.0239847
72.96 0.0210597
73.24 -0.0508482
73.52 -0.0142008
73.8 0.0281873
74.08 -0.0190194
74.36 0.200094
74.64 0.0633944
74.92 -0.00283883
75.2 -0.0154994
75.48 -0.0101232
75.76 0.0586446
76.04 0.210474
76.32 0.159731
76.6 0.13038
76.88 -0.00921866
77.16 -0.0149513
77.44 -0.0572974
77.72 0.027494
78 0.087854
78.28 0.0216371
78.56 0.0209021
78.84 -0.0299935
79.12 -0.0244142
79.4 0.0246856
79.68 -0.047903
79.96 -0.027421
80.24 -0.0351272
80.52 -0.0389621
80.8 -0.0551848
81.08 -0.00062806
81.36 0.0146502
81.64 -0.00419799
81.92 0.0514148
82.2 -0.055604
82.48 0.070621
82.68 -0.063717