File: exemplary_data/XRD/sample1.xy
'Id: "" Comment: "Integrate frame 3_Br25_001.gfrmwith cursor Full Frame Cursor #19" Operator: "MAF user" Anode: "Cu" Scantype: "TwoTheta" TimePerStep: "60"
4.64 -0.114016
4.92 -0.10142
5.2 0.343778
5.48 0.0372633
5.76 0.183423
6.04 0.195601
6.32 -0.0316986
6.6 0.119912
6.88 -0.0402148
7.16 -0.0725763
7.44 0.1503
7.72 0.0288683
8 0.125369
8.28 0.0624646
8.56 0.181566
8.84 0.0104832
9.12 0.134244
9.4 0.223605
9.68 -0.0996704
9.96 0.0865801
10.24 0.0163484
10.52 0.216797
10.8 0.0284223
11.08 0.00656389
11.36 -0.0417978
11.64 -0.0649732
11.92 -0.0195002
12.2 -0.0995917
12.48 0.189298
12.76 0.527014
13.04 -0.0174324
13.32 -0.0234239
13.6 0.0388963
13.88 1.49184
14.16 30.1125
14.44 0.890922
14.72 0.109283
15 -0.0565318
15.28 0.0613454
15.56 0.0558326
15.84 -0.0348684
16.12 -0.00507537
16.4 0.126251
16.68 -0.0375934
16.96 -0.0473666
17.24 -0.0301819
17.52 0.0275552
17.8 0.0747585
18.08 -0.075171
18.36 0.0497992
18.64 0.0236702
18.92 -0.0650293
19.2 -0.063101
19.48 0.0291771
19.76 0.212013
20.04 6.87271
20.32 0.424817
20.6 -0.0254364
20.88 0.0116371
21.16 -0.0129253
21.44 -0.0251636
21.72 -0.0499667
22 -0.0343637
22.28 -0.0109636
22.56 0.0715581
22.84 0.143751
23.12 -0.0126397
23.4 0.055953
23.68 -0.105085
23.96 -0.105367
24.24 -0.0165299
24.52 1.2149
24.8 2.59912
25.08 0.186354
25.36 0.186609
25.64 0.196927
25.92 0.388118
26.2 0.138217
26.48 0.0146511
26.76 0.149687
27.04 0.145974
27.32 0.0652989
27.6 0.174812
27.88 0.175664
28.16 0.20531
28.44 10.2764
28.72 2.73791
29 0.0577321
29.28 -0.0912686
29.56 0.100938
29.84 -0.0443687
30.12 -0.0218717
30.4 0.0342309
30.68 0.14826
30.96 -0.0283048
31.24 0.0402408
31.52 0.0508486
31.8 0.483283
32.08 14.2201
32.36 0.262331
32.64 0.16955
32.92 -0.0225776
33.2 0.165491
33.48 0.181832
33.76 0.11597
34.04 0.111339
34.32 0.189298
34.6 0.0713638
34.88 0.10077
35.16 3.268
35.44 0.511516
35.72 0.12035
36 -0.0217818
36.28 0.0399181
36.56 0.0145158
36.84 0.0204739
37.12 0.0589349
37.4 -0.0147432
37.68 0.053418
37.96 -0.0151956
38.24 -0.0160067
38.52 0.109612
38.8 0.110505
39.08 -0.00548974
39.36 0.00880764
39.64 -0.0155628
39.92 -0.00422658
40.2 0.0457788
40.48 0.0384147
40.76 5.59679
41.04 7.22441
41.32 0.121587
41.6 -0.0227052
41.88 -0.0813135
42.16 0.00973527
42.44 0.0985349
42.72 -0.0183158
43 0.0955054
43.28 0.96806
43.56 4.08926
43.84 0.249484
44.12 0.0625509
44.4 0.115614
44.68 0.00409244
44.96 -0.0204341
45.24 -0.0440263
45.52 -0.0220582
45.8 0.0969602
46.08 0.0448502
46.36 -0.0169916
46.64 0.0104079
46.92 0.0633299
47.2 -0.0259133
47.48 0.097666
47.76 0.00405135
48.04 0.0914301
48.32 0.115157
48.6 -0.0734315
48.88 -0.000830897
49.16 -0.01135
49.44 0.229324
49.72 -0.0119844
50 0.00599551
50.28 -0.0470577
50.56 1.4365
50.84 0.324962
51.12 0.0108674
51.4 -0.0280041
51.68 0.0214229
51.96 0.0783661
52.24 0.0639821
52.52 0.236996
52.8 1.08057
53.08 0.348678
53.36 0.0130177
53.64 -0.0477009
53.92 -0.0286367
54.2 0.00906858
54.48 -0.0293113
54.76 0.0935986
55.04 0.607514
55.32 0.194701
55.6 0.0257393
55.88 -0.00128419
56.16 -0.0578594
56.44 -0.0483214
56.72 0.0836152
57 0.136475
57.28 -0.0237393
57.56 -0.0428953
57.84 0.0588619
58.12 0.0533221
58.4 0.0358913
58.68 -0.0196274
58.96 0.306718
59.24 0.237106
59.52 0.0288039
59.8 0.0356065
60.08 0.0649869
60.36 -0.0097926
60.64 0.00925956
60.92 0.0555706
61.2 0.763461
61.48 0.0283244
61.76 -0.00927169
62.04 0.0470264
62.32 -0.0270464
62.6 0.0655163
62.88 0.0489789
63.16 0.220629
63.44 0.0103361
63.72 0.0464962
64 0.06011
64.28 0.0649717
64.56 -0.0278137
64.84 0.10881
65.12 -0.062748
65.4 -0.0244783
65.68 0.0128598
65.96 0.0122927
66.24 -0.00784153
66.52 -0.0334713
66.8 0.419673
67.08 0.594578
67.36 0.0624444
67.64 -0.0109719
67.92 0.049137
68.2 -0.0352347
68.48 0.0196833
68.76 0.394332
69.04 0.304781
69.32 -0.0173895
69.6 0.0145073
69.88 -0.0329566
70.16 0.0474865
70.44 0.0285534
70.72 0.0684102
71 0.137415
71.28 -0.0345563
71.56 0.0470659
71.84 0.0330719
72.12 -0.0447572
72.4 -0.0112393
72.68 0.0707173
72.96 -0.057372
73.24 -0.0135184
73.52 -0.0155451
73.8 -0.0235825
74.08 0.105998
74.36 0.275905
74.64 0.154898
74.92 0.0455267
75.2 0.0865516
75.48 0.0383761
75.76 0.00161014
76.04 0.0722745
76.32 0.0755134
76.6 0.0987777
76.88 -0.011916
77.16 -0.0264095
77.44 -0.0100677
77.72 0.01313
78 0.197178
78.28 0.204855
78.56 0.104662
78.84 0.00669409
79.12 0.0471845
79.4 0.0273493
79.68 0.0190263
79.96 0.048953
80.24 0.0223722
80.52 0.00104585
80.8 -0.0377276
81.08 0.0780842
81.36 0.0298547
81.64 -0.0373111
81.92 -0.0546444
82.2 -0.055263
82.48 0.12617
82.68 -0.0693511